Region	Enabled	DataFlag	Start	End	Step	Sweeps	Dwell	Mode	CAE/CRR	Mag	Divide by Ten	Notes	Function	Line-Style	Point-Style	Sweeps-Acquired
1	true	Original	-20.0	1000.0	0.5	1	0.200	CAE	50.00	High	false	Survey	7 Channel Acquisition			1
Layer	Enabled	DataFlag	Notes	Formula	Line-Style	Point-Style
1	True		Ch(1)+Ch(2)+Ch(3)+Ch(4)+Ch(5)+Ch(6)+Ch(7)		
Energy	Counts
-20.0	937
-19.5	847
-19.0	836
-18.5	866
-18.0	911
-17.5	909
-17.0	841
-16.5	854
-16.0	859
-15.5	866
-15.0	857
-14.5	890
-14.0	838
-13.5	854
-13.0	908
-12.5	857
-12.0	870
-11.5	881
-11.0	959
-10.5	923
-10.0	969
-9.5	1062
-9.0	1025
-8.5	1022
-8.0	1044
-7.5	1074
-7.0	1016
-6.5	1027
-6.0	998
-5.5	1002
-5.0	990
-4.5	1008
-4.0	944
-3.5	921
-3.0	989
-2.5	999
-2.0	1013
-1.5	1002
-1.0	1122
-0.5	1362
0.0	1753
0.5	2082
1.0	2159
1.5	2319
2.0	2471
2.5	2546
3.0	2601
3.5	2720
4.0	2705
4.5	2605
5.0	2499
5.5	2381
6.0	2189
6.5	2035
7.0	1801
7.5	1642
8.0	1610
8.5	1560
9.0	1538
9.5	1445
10.0	1449
10.5	1486
11.0	1511
11.5	1497
12.0	1391
12.5	1469
13.0	1491
13.5	1552
14.0	1494
14.5	1653
15.0	1835
15.5	2110
16.0	2366
16.5	2696
17.0	2805
17.5	2936
18.0	2840
18.5	2765
19.0	2718
19.5	2798
20.0	2774
20.5	2589
21.0	2578
21.5	2496
22.0	2519
22.5	2388
23.0	2355
23.5	2351
24.0	2369
24.5	2181
25.0	2104
25.5	2010
26.0	1992
26.5	1906
27.0	1894
27.5	1956
28.0	1892
28.5	1849
29.0	1882
29.5	1841
30.0	1826
30.5	1868
31.0	1889
31.5	1896
32.0	1936
32.5	1921
33.0	1941
33.5	1990
34.0	2038
34.5	2160
35.0	2214
35.5	2294
36.0	2478
36.5	2527
37.0	2625
37.5	2560
38.0	2491
38.5	2410
39.0	2337
39.5	2335
40.0	2311
40.5	2341
41.0	2321
41.5	2327
42.0	2351
42.5	2483
43.0	2525
43.5	2498
44.0	2624
44.5	2775
45.0	2845
45.5	3087
46.0	3237
46.5	3340
47.0	3379
47.5	3468
48.0	3263
48.5	3285
49.0	3274
49.5	3299
50.0	3276
50.5	3131
51.0	3058
51.5	2915
52.0	2901
52.5	2859
53.0	2760
53.5	2773
54.0	2715
54.5	2741
55.0	2705
55.5	2687
56.0	2655
56.5	2660
57.0	2685
57.5	2596
58.0	2625
58.5	2696
59.0	2659
59.5	2621
60.0	2668
60.5	2606
61.0	2546
61.5	2591
62.0	2543
62.5	2520
63.0	2478
63.5	2582
64.0	2588
64.5	2582
65.0	2510
65.5	2513
66.0	2557
66.5	2522
67.0	2490
67.5	2595
68.0	2502
68.5	2512
69.0	2512
69.5	2516
70.0	2533
70.5	2525
71.0	2614
71.5	2589
72.0	2586
72.5	2571
73.0	2579
73.5	2652
74.0	2616
74.5	2592
75.0	2641
75.5	2600
76.0	2655
76.5	2634
77.0	2674
77.5	2791
78.0	2821
78.5	2814
79.0	2751
79.5	2875
80.0	2938
80.5	3056
81.0	3040
81.5	3056
82.0	3013
82.5	2952
83.0	3003
83.5	2878
84.0	2869
84.5	2838
85.0	2824
85.5	2882
86.0	2830
86.5	2911
87.0	2934
87.5	2851
88.0	2847
88.5	2817
89.0	2781
89.5	2845
90.0	2836
90.5	2725
91.0	2830
91.5	2745
92.0	2730
92.5	2745
93.0	2802
93.5	2788
94.0	2814
94.5	2898
95.0	2819
95.5	2913
96.0	3104
96.5	3185
97.0	3213
97.5	3251
98.0	3412
98.5	3503
99.0	3375
99.5	3393
100.0	3443
100.5	3442
101.0	3471
101.5	3566
102.0	3688
102.5	3652
103.0	3701
103.5	3694
104.0	3624
104.5	3660
105.0	3851
105.5	4296
106.0	4872
106.5	5926
107.0	7190
107.5	8468
108.0	9535
108.5	9897
109.0	9446
109.5	8906
110.0	8738
110.5	9011
111.0	9536
111.5	9967
112.0	10152
112.5	9857
113.0	9848
113.5	9498
114.0	9610
114.5	9453
115.0	9248
115.5	8862
116.0	8587
116.5	8329
117.0	8244
117.5	8059
118.0	8020
118.5	8050
119.0	8180
119.5	8263
120.0	8512
120.5	8953
121.0	9826
121.5	10441
122.0	10435
122.5	9561
123.0	8632
123.5	8025
124.0	8038
124.5	8553
125.0	8851
125.5	8450
126.0	7526
126.5	6813
127.0	6353
127.5	6104
128.0	5797
128.5	5588
129.0	5578
129.5	5494
130.0	5455
130.5	5460
131.0	5298
131.5	5420
132.0	5386
132.5	5373
133.0	5335
133.5	5558
134.0	5544
134.5	5287
135.0	5269
135.5	5366
136.0	5439
136.5	5441
137.0	5419
137.5	5401
138.0	5358
138.5	5257
139.0	5248
139.5	5193
140.0	5184
140.5	5164
141.0	5255
141.5	5143
142.0	5302
142.5	5303
143.0	5324
143.5	5212
144.0	5204
144.5	5215
145.0	5206
145.5	5255
146.0	5239
146.5	5196
147.0	5183
147.5	5081
148.0	5191
148.5	5252
149.0	5247
149.5	5088
150.0	5186
150.5	5114
151.0	5143
151.5	5173
152.0	5172
152.5	5167
153.0	4954
153.5	5012
154.0	5067
154.5	5105
155.0	5065
155.5	5048
156.0	4950
156.5	4925
157.0	4998
157.5	4927
158.0	4982
158.5	4915
159.0	4819
159.5	4892
160.0	4804
160.5	4900
161.0	4890
161.5	4749
162.0	4710
162.5	4834
163.0	4776
163.5	4691
164.0	4829
164.5	4743
165.0	4752
165.5	4757
166.0	4648
166.5	4603
167.0	4602
167.5	4524
168.0	4717
168.5	4677
169.0	4613
169.5	4495
170.0	4548
170.5	4583
171.0	4517
171.5	4428
172.0	4535
172.5	4503
173.0	4533
173.5	4414
174.0	4496
174.5	4407
175.0	4427
175.5	4376
176.0	4403
176.5	4403
177.0	4401
177.5	4403
178.0	4269
178.5	4342
179.0	4334
179.5	4435
180.0	4331
180.5	4323
181.0	4378
181.5	4350
182.0	4306
182.5	4344
183.0	4202
183.5	4296
184.0	4315
184.5	4262
185.0	4214
185.5	4216
186.0	4151
186.5	4256
187.0	4192
187.5	4283
188.0	4153
188.5	4177
189.0	4207
189.5	4183
190.0	4235
190.5	4069
191.0	4161
191.5	4198
192.0	4159
192.5	4131
193.0	4198
193.5	4247
194.0	4355
194.5	4330
195.0	4336
195.5	4372
196.0	4338
196.5	4307
197.0	4338
197.5	4408
198.0	4359
198.5	4310
199.0	4288
199.5	4272
200.0	4340
200.5	4336
201.0	4375
201.5	4362
202.0	4395
202.5	4430
203.0	4491
203.5	4560
204.0	4708
204.5	4990
205.0	5536
205.5	6231
206.0	6979
206.5	7378
207.0	7270
207.5	6807
208.0	6550
208.5	6236
209.0	6069
209.5	5957
210.0	5753
210.5	5696
211.0	5600
211.5	5646
212.0	6003
212.5	5989
213.0	6014
213.5	6121
214.0	6083
214.5	6121
215.0	5902
215.5	5817
216.0	5718
216.5	5795
217.0	5765
217.5	5763
218.0	5964
218.5	6345
219.0	6644
219.5	7168
220.0	7261
220.5	7294
221.0	6994
221.5	6532
222.0	6231
222.5	6090
223.0	6057
223.5	5715
224.0	5657
224.5	5574
225.0	5529
225.5	5593
226.0	5664
226.5	5611
227.0	5595
227.5	5725
228.0	5682
228.5	5737
229.0	5720
229.5	5587
230.0	5596
230.5	5636
231.0	5493
231.5	5594
232.0	5473
232.5	5499
233.0	5497
233.5	5428
234.0	5455
234.5	5574
235.0	5699
235.5	5708
236.0	5808
236.5	5694
237.0	5767
237.5	5899
238.0	5943
238.5	5918
239.0	5911
239.5	5844
240.0	5699
240.5	5587
241.0	5624
241.5	5696
242.0	5559
242.5	5499
243.0	5579
243.5	5508
244.0	5551
244.5	5430
245.0	5510
245.5	5559
246.0	5619
246.5	5548
247.0	5723
247.5	5495
248.0	5530
248.5	5513
249.0	5526
249.5	5630
250.0	5442
250.5	5432
251.0	5570
251.5	5689
252.0	5571
252.5	5518
253.0	5546
253.5	5561
254.0	5766
254.5	5773
255.0	5732
255.5	5654
256.0	5679
256.5	5547
257.0	5561
257.5	5608
258.0	5325
258.5	5379
259.0	5428
259.5	5467
260.0	5451
260.5	5461
261.0	5345
261.5	5346
262.0	5429
262.5	5477
263.0	5426
263.5	5395
264.0	5431
264.5	5276
265.0	5153
265.5	5210
266.0	5119
266.5	5133
267.0	5140
267.5	5074
268.0	5222
268.5	5157
269.0	5129
269.5	5072
270.0	5108
270.5	5095
271.0	5102
271.5	5122
272.0	5103
272.5	5023
273.0	5108
273.5	4989
274.0	5034
274.5	5032
275.0	5075
275.5	5047
276.0	4959
276.5	5020
277.0	5133
277.5	5070
278.0	5067
278.5	5017
279.0	4976
279.5	4948
280.0	5007
280.5	5046
281.0	5010
281.5	5027
282.0	5037
282.5	5005
283.0	5016
283.5	5083
284.0	5065
284.5	5109
285.0	5077
285.5	5265
286.0	5230
286.5	5284
287.0	5367
287.5	5470
288.0	5713
288.5	5820
289.0	5896
289.5	5787
290.0	5763
290.5	5800
291.0	5747
291.5	5734
292.0	5646
292.5	5595
293.0	5677
293.5	5705
294.0	5771
294.5	5871
295.0	6056
295.5	6168
296.0	6371
296.5	6627
297.0	6872
297.5	6845
298.0	6594
298.5	6304
299.0	6155
299.5	6100
300.0	6162
300.5	6200
301.0	6627
301.5	6622
302.0	6698
302.5	6862
303.0	6861
303.5	6639
304.0	6633
304.5	6633
305.0	6984
305.5	8061
306.0	11615
306.5	18270
307.0	23363
307.5	22640
308.0	18027
308.5	13715
309.0	11339
309.5	10500
310.0	10473
310.5	11746
311.0	14645
311.5	17647
312.0	18971
312.5	17146
313.0	14665
313.5	12797
314.0	11762
314.5	11109
315.0	10663
315.5	10427
316.0	10065
316.5	9923
317.0	9855
317.5	9975
318.0	9818
318.5	9629
319.0	9553
319.5	9554
320.0	9546
320.5	9560
321.0	9446
321.5	9575
322.0	9633
322.5	9496
323.0	9310
323.5	9234
324.0	9078
324.5	9032
325.0	9091
325.5	9137
326.0	9077
326.5	9230
327.0	9098
327.5	9164
328.0	9218
328.5	9110
329.0	9164
329.5	9135
330.0	9251
330.5	9274
331.0	9414
331.5	9471
332.0	9495
332.5	9521
333.0	9603
333.5	9544
334.0	9687
334.5	9691
335.0	9816
335.5	9734
336.0	9990
336.5	9995
337.0	10092
337.5	10264
338.0	10231
338.5	10160
339.0	10323
339.5	10548
340.0	10476
340.5	10521
341.0	10690
341.5	10631
342.0	10710
342.5	10627
343.0	10726
343.5	10743
344.0	10631
344.5	10529
345.0	10660
345.5	10755
346.0	10734
346.5	10622
347.0	10657
347.5	10709
348.0	10688
348.5	10593
349.0	10718
349.5	10648
350.0	10577
350.5	10429
351.0	10397
351.5	10379
352.0	10363
352.5	10445
353.0	10379
353.5	10377
354.0	10403
354.5	10364
355.0	10586
355.5	10528
356.0	10418
356.5	10386
357.0	10505
357.5	10294
358.0	10358
358.5	10500
359.0	10404
359.5	10491
360.0	10473
360.5	10467
361.0	10517
361.5	10559
362.0	10487
362.5	10512
363.0	10598
363.5	10509
364.0	10635
364.5	10671
365.0	10635
365.5	10634
366.0	10617
366.5	10625
367.0	10736
367.5	10669
368.0	10779
368.5	10641
369.0	10785
369.5	10813
370.0	10793
370.5	10825
371.0	10662
371.5	10815
372.0	10770
372.5	10735
373.0	10771
373.5	10792
374.0	10858
374.5	10995
375.0	10940
375.5	10885
376.0	10981
376.5	10838
377.0	11012
377.5	10898
378.0	10901
378.5	11022
379.0	10997
379.5	10892
380.0	10968
380.5	11022
381.0	10913
381.5	10984
382.0	10934
382.5	11005
383.0	10844
383.5	10892
384.0	11003
384.5	10833
385.0	10909
385.5	11011
386.0	10949
386.5	10979
387.0	10952
387.5	10946
388.0	10942
388.5	10796
389.0	10971
389.5	10974
390.0	10991
390.5	10998
391.0	11116
391.5	10995
392.0	10834
392.5	10936
393.0	11078
393.5	10839
394.0	10872
394.5	11060
395.0	10892
395.5	11071
396.0	10856
396.5	10948
397.0	10946
397.5	10955
398.0	11008
398.5	10993
399.0	11051
399.5	11183
400.0	10957
400.5	11034
401.0	10997
401.5	10960
402.0	11002
402.5	10919
403.0	10929
403.5	11122
404.0	11104
404.5	10993
405.0	10985
405.5	11059
406.0	11014
406.5	11102
407.0	11091
407.5	10962
408.0	11015
408.5	10887
409.0	10896
409.5	11023
410.0	11273
410.5	11077
411.0	11139
411.5	11084
412.0	11131
412.5	11172
413.0	11137
413.5	11185
414.0	11088
414.5	11108
415.0	11175
415.5	11148
416.0	11162
416.5	11245
417.0	11201
417.5	11137
418.0	11221
418.5	11012
419.0	11180
419.5	11351
420.0	11180
420.5	11272
421.0	11253
421.5	11119
422.0	11189
422.5	11034
423.0	11297
423.5	11193
424.0	11268
424.5	11383
425.0	11248
425.5	11324
426.0	11183
426.5	11176
427.0	11254
427.5	11297
428.0	11334
428.5	11245
429.0	11074
429.5	11275
430.0	11345
430.5	11255
431.0	11341
431.5	11266
432.0	11328
432.5	11229
433.0	11440
433.5	11367
434.0	11373
434.5	11388
435.0	11312
435.5	11344
436.0	11317
436.5	11216
437.0	11400
437.5	11456
438.0	11461
438.5	11323
439.0	11359
439.5	11406
440.0	11619
440.5	11510
441.0	11450
441.5	11402
442.0	11377
442.5	11303
443.0	11299
443.5	11594
444.0	11464
444.5	11231
445.0	11282
445.5	11320
446.0	11278
446.5	11565
447.0	11430
447.5	11439
448.0	11373
448.5	11390
449.0	11406
449.5	11466
450.0	11483
450.5	11428
451.0	11361
451.5	11515
452.0	11287
452.5	11376
453.0	11420
453.5	11473
454.0	11412
454.5	11528
455.0	11570
455.5	11363
456.0	11419
456.5	11705
457.0	11403
457.5	11590
458.0	11686
458.5	11586
459.0	11539
459.5	11694
460.0	11725
460.5	11652
461.0	11780
461.5	11674
462.0	11469
462.5	11486
463.0	11545
463.5	11548
464.0	11568
464.5	11689
465.0	11463
465.5	11672
466.0	11707
466.5	11482
467.0	11360
467.5	11592
468.0	11550
468.5	11528
469.0	11583
469.5	11572
470.0	11687
470.5	11497
471.0	11578
471.5	11666
472.0	11518
472.5	11429
473.0	11649
473.5	11508
474.0	11475
474.5	11564
475.0	11722
475.5	11513
476.0	11735
476.5	11765
477.0	11593
477.5	11692
478.0	11614
478.5	11810
479.0	11665
479.5	11693
480.0	11724
480.5	11700
481.0	11825
481.5	11766
482.0	11814
482.5	11916
483.0	11904
483.5	11824
484.0	11845
484.5	12115
485.0	12157
485.5	12441
486.0	12283
486.5	12369
487.0	12369
487.5	12372
488.0	12357
488.5	12266
489.0	12425
489.5	12271
490.0	12292
490.5	12473
491.0	12521
491.5	12526
492.0	12708
492.5	12803
493.0	13438
493.5	13615
494.0	14394
494.5	15067
495.0	16060
495.5	17322
496.0	18275
496.5	18440
497.0	18178
497.5	17359
498.0	16517
498.5	16024
499.0	15198
499.5	14980
500.0	14560
500.5	14402
501.0	14279
501.5	14079
502.0	14003
502.5	14016
503.0	14276
503.5	14041
504.0	13988
504.5	14001
505.0	14011
505.5	14073
506.0	14148
506.5	13908
507.0	13864
507.5	13942
508.0	13964
508.5	13993
509.0	13918
509.5	14059
510.0	14081
510.5	14155
511.0	14032
511.5	14076
512.0	14245
512.5	14154
513.0	13942
513.5	13874
514.0	14122
514.5	14005
515.0	13847
515.5	14186
516.0	14127
516.5	14598
517.0	15023
517.5	15288
518.0	15644
518.5	15954
519.0	17072
519.5	17678
520.0	18149
520.5	18230
521.0	18041
521.5	17577
522.0	17281
522.5	16931
523.0	16654
523.5	16614
524.0	16428
524.5	16143
525.0	16077
525.5	15848
526.0	15912
526.5	16295
527.0	16901
527.5	18122
528.0	21792
528.5	30494
529.0	41582
529.5	45609
530.0	38481
530.5	27879
531.0	21258
531.5	18515
532.0	17517
532.5	17164
533.0	17024
533.5	17053
534.0	16906
534.5	17024
535.0	16854
535.5	16762
536.0	16741
536.5	16725
537.0	16573
537.5	16408
538.0	16463
538.5	16648
539.0	16695
539.5	16856
540.0	17327
540.5	17549
541.0	17566
541.5	17795
542.0	18067
542.5	18368
543.0	18347
543.5	18602
544.0	18182
544.5	18060
545.0	18078
545.5	17989
546.0	17708
546.5	17613
547.0	17836
547.5	17804
548.0	17482
548.5	17679
549.0	18052
549.5	18073
550.0	18063
550.5	17822
551.0	17624
551.5	17541
552.0	17665
552.5	17709
553.0	17666
553.5	17863
554.0	17936
554.5	17633
555.0	17954
555.5	17762
556.0	17856
556.5	17905
557.0	17918
557.5	18161
558.0	17946
558.5	17997
559.0	18058
559.5	18222
560.0	18246
560.5	18235
561.0	18260
561.5	18356
562.0	18475
562.5	18415
563.0	18663
563.5	18348
564.0	18631
564.5	18539
565.0	18351
565.5	18516
566.0	18311
566.5	18535
567.0	18509
567.5	18213
568.0	18099
568.5	18020
569.0	18100
569.5	18154
570.0	18186
570.5	18190
571.0	17986
571.5	17965
572.0	17950
572.5	18070
573.0	18211
573.5	17969
574.0	18075
574.5	18061
575.0	18011
575.5	18210
576.0	18121
576.5	18106
577.0	18142
577.5	18039
578.0	18070
578.5	18209
579.0	17945
579.5	17759
580.0	17864
580.5	17842
581.0	17970
581.5	17843
582.0	17925
582.5	18029
583.0	18197
583.5	18089
584.0	18013
584.5	17899
585.0	17911
585.5	17906
586.0	18092
586.5	18084
587.0	18165
587.5	17941
588.0	18097
588.5	18047
589.0	18127
589.5	18197
590.0	18213
590.5	18178
591.0	18017
591.5	17949
592.0	17757
592.5	18282
593.0	18211
593.5	18009
594.0	18021
594.5	17949
595.0	17962
595.5	17941
596.0	17811
596.5	17998
597.0	18169
597.5	18254
598.0	18217
598.5	18139
599.0	17971
599.5	17885
600.0	17897
600.5	17953
601.0	18003
601.5	18210
602.0	17905
602.5	18089
603.0	18089
603.5	17965
604.0	17993
604.5	18140
605.0	18249
605.5	17970
606.0	18070
606.5	17750
607.0	17938
607.5	17936
608.0	17974
608.5	17970
609.0	18141
609.5	18121
610.0	18044
610.5	18042
611.0	18179
611.5	18048
612.0	18039
612.5	18095
613.0	18077
613.5	17799
614.0	17943
614.5	17984
615.0	17997
615.5	18110
616.0	18097
616.5	18239
617.0	18214
617.5	18184
618.0	18180
618.5	18202
619.0	18274
619.5	18129
620.0	18370
620.5	18362
621.0	18262
621.5	18460
622.0	18539
622.5	18512
623.0	18437
623.5	18506
624.0	18727
624.5	18503
625.0	18977
625.5	18939
626.0	18981
626.5	18799
627.0	18840
627.5	19059
628.0	19024
628.5	19078
629.0	19143
629.5	19077
630.0	19102
630.5	19109
631.0	18877
631.5	18762
632.0	18631
632.5	18686
633.0	18789
633.5	18698
634.0	18798
634.5	18665
635.0	18881
635.5	18603
636.0	18417
636.5	18406
637.0	18570
637.5	18638
638.0	18716
638.5	18629
639.0	18583
639.5	18747
640.0	18479
640.5	18534
641.0	18623
641.5	18507
642.0	18609
642.5	18511
643.0	18426
643.5	18495
644.0	18436
644.5	18572
645.0	18658
645.5	18647
646.0	18432
646.5	18556
647.0	18519
647.5	18462
648.0	18384
648.5	18365
649.0	18169
649.5	18512
650.0	18561
650.5	18305
651.0	18565
651.5	18341
652.0	18491
652.5	18482
653.0	18606
653.5	18473
654.0	18586
654.5	18450
655.0	18556
655.5	18440
656.0	18500
656.5	18399
657.0	18639
657.5	18460
658.0	18462
658.5	18641
659.0	18683
659.5	18516
660.0	18561
660.5	18338
661.0	18714
661.5	18670
662.0	18557
662.5	18622
663.0	18706
663.5	18508
664.0	18452
664.5	18395
665.0	18221
665.5	18539
666.0	18578
666.5	18460
667.0	18318
667.5	18599
668.0	18319
668.5	18471
669.0	18453
669.5	18372
670.0	18429
670.5	18417
671.0	18458
671.5	18399
672.0	18286
672.5	18370
673.0	18374
673.5	18374
674.0	18372
674.5	18371
675.0	18446
675.5	18366
676.0	18565
676.5	18371
677.0	18471
677.5	18372
678.0	18391
678.5	18493
679.0	18451
679.5	18546
680.0	18555
680.5	18439
681.0	18502
681.5	18387
682.0	18333
682.5	18632
683.0	18610
683.5	18667
684.0	18649
684.5	18577
685.0	18377
685.5	18447
686.0	18642
686.5	18526
687.0	18677
687.5	18735
688.0	18692
688.5	18530
689.0	18586
689.5	18732
690.0	18628
690.5	18750
691.0	19110
691.5	19120
692.0	18911
692.5	19025
693.0	19100
693.5	19130
694.0	19041
694.5	19240
695.0	19235
695.5	19405
696.0	19598
696.5	19816
697.0	19624
697.5	19795
698.0	20004
698.5	20013
699.0	20074
699.5	20494
700.0	20637
700.5	20463
701.0	20908
701.5	20766
702.0	20722
702.5	21037
703.0	20858
703.5	20739
704.0	20632
704.5	20559
705.0	20574
705.5	20483
706.0	20227
706.5	20573
707.0	20393
707.5	20407
708.0	20342
708.5	20267
709.0	20646
709.5	20844
710.0	21007
710.5	21139
711.0	21346
711.5	21497
712.0	22029
712.5	22223
713.0	22742
713.5	22884
714.0	23370
714.5	24020
715.0	24438
715.5	24513
716.0	24929
716.5	25072
717.0	24965
717.5	24870
718.0	24752
718.5	24416
719.0	24371
719.5	24133
720.0	23896
720.5	23609
721.0	23368
721.5	22932
722.0	22692
722.5	22644
723.0	22206
723.5	22174
724.0	22156
724.5	22004
725.0	22070
725.5	21831
726.0	21980
726.5	22074
727.0	22084
727.5	22399
728.0	22482
728.5	23049
729.0	23274
729.5	23521
730.0	23603
730.5	23558
731.0	23749
731.5	23715
732.0	23926
732.5	23764
733.0	23934
733.5	23838
734.0	23823
734.5	23734
735.0	23650
735.5	23440
736.0	23408
736.5	23075
737.0	23162
737.5	22968
738.0	22803
738.5	22540
739.0	22610
739.5	22542
740.0	22485
740.5	22455
741.0	22524
741.5	22076
742.0	22316
742.5	22293
743.0	22259
743.5	22238
744.0	22107
744.5	22087
745.0	22073
745.5	22048
746.0	22258
746.5	22256
747.0	22505
747.5	22527
748.0	22514
748.5	22666
749.0	22631
749.5	22827
750.0	22675
750.5	22777
751.0	22441
751.5	22708
752.0	22596
752.5	22538
753.0	22299
753.5	22181
754.0	22129
754.5	22277
755.0	22248
755.5	22197
756.0	21968
756.5	22210
757.0	22272
757.5	21963
758.0	22014
758.5	22050
759.0	21831
759.5	21910
760.0	21840
760.5	21662
761.0	21618
761.5	21701
762.0	21494
762.5	21688
763.0	21725
763.5	21862
764.0	22070
764.5	21667
765.0	21651
765.5	21266
766.0	21490
766.5	21575
767.0	21519
767.5	21707
768.0	21659
768.5	21391
769.0	21313
769.5	21411
770.0	21414
770.5	21205
771.0	21244
771.5	21220
772.0	21447
772.5	21208
773.0	21409
773.5	21432
774.0	21266
774.5	21098
775.0	21117
775.5	21292
776.0	21149
776.5	21171
777.0	21361
777.5	21400
778.0	21100
778.5	21176
779.0	21156
779.5	20981
780.0	21084
780.5	21165
781.0	21104
781.5	21072
782.0	20943
782.5	21204
783.0	20955
783.5	21164
784.0	21057
784.5	21109
785.0	20918
785.5	20940
786.0	21318
786.5	21252
787.0	20815
787.5	21013
788.0	20984
788.5	20995
789.0	21054
789.5	20989
790.0	21204
790.5	20991
791.0	21110
791.5	21207
792.0	21138
792.5	21007
793.0	20927
793.5	21325
794.0	21587
794.5	21535
795.0	21393
795.5	21579
796.0	21838
796.5	21726
797.0	21959
797.5	21943
798.0	22080
798.5	22255
799.0	22821
799.5	23191
800.0	23320
800.5	23507
801.0	24149
801.5	24630
802.0	24920
802.5	25458
803.0	25986
803.5	26388
804.0	27289
804.5	28107
805.0	28804
805.5	29193
806.0	29779
806.5	30571
807.0	31022
807.5	31478
808.0	31748
808.5	32272
809.0	32658
809.5	33031
810.0	33158
810.5	33638
811.0	33794
811.5	33945
812.0	33964
812.5	34140
813.0	34146
813.5	34764
814.0	34762
814.5	35163
815.0	35122
815.5	35917
816.0	36444
816.5	36759
817.0	37925
817.5	39100
818.0	40181
818.5	41254
819.0	42544
819.5	43345
820.0	44425
820.5	44882
821.0	45859
821.5	46969
822.0	47613
822.5	48201
823.0	48932
823.5	49277
824.0	49887
824.5	50580
825.0	50796
825.5	51021
826.0	51536
826.5	51361
827.0	51302
827.5	50710
828.0	49903
828.5	49824
829.0	49313
829.5	48564
830.0	47736
830.5	47354
831.0	46580
831.5	46208
832.0	45712
832.5	44849
833.0	44737
833.5	44581
834.0	44178
834.5	43706
835.0	43322
835.5	43359
836.0	43485
836.5	43129
837.0	42908
837.5	42983
838.0	42845
838.5	43233
839.0	43241
839.5	43523
840.0	43426
840.5	43125
841.0	43103
841.5	42916
842.0	42870
842.5	42338
843.0	42146
843.5	42330
844.0	42421
844.5	41632
845.0	41885
845.5	41513
846.0	40885
846.5	40865
847.0	40392
847.5	40131
848.0	39624
848.5	39742
849.0	39146
849.5	39229
850.0	38889
850.5	39016
851.0	38777
851.5	38715
852.0	38810
852.5	38510
853.0	38670
853.5	38887
854.0	38754
854.5	38104
855.0	38639
855.5	38342
856.0	38434
856.5	38162
857.0	38373
857.5	38260
858.0	37991
858.5	38116
859.0	37846
859.5	38074
860.0	37664
860.5	38055
861.0	37903
861.5	37822
862.0	37841
862.5	37628
863.0	37528
863.5	37376
864.0	37271
864.5	37466
865.0	37297
865.5	37322
866.0	37222
866.5	37226
867.0	37489
867.5	37205
868.0	37191
868.5	37338
869.0	37473
869.5	37895
870.0	38248
870.5	38632
871.0	38981
871.5	39494
872.0	40318
872.5	40451
873.0	40796
873.5	40652
874.0	39846
874.5	39408
875.0	39286
875.5	39653
876.0	39735
876.5	39973
877.0	40323
877.5	40266
878.0	40889
878.5	41325
879.0	41840
879.5	42900
880.0	44358
880.5	47265
881.0	54205
881.5	65106
882.0	77155
882.5	83188
883.0	80605
883.5	74099
884.0	68201
884.5	64306
885.0	61430
885.5	60365
886.0	60444
886.5	61066
887.0	63094
887.5	66365
888.0	69657
888.5	72672
889.0	73488
889.5	72649
890.0	70707
890.5	67594
891.0	64936
891.5	62677
892.0	60705
892.5	58525
893.0	56949
893.5	55877
894.0	55213
894.5	55356
895.0	56223
895.5	57824
896.0	60592
896.5	66069
897.0	74825
897.5	86512
898.0	97565
898.5	102067
899.0	98011
899.5	91086
900.0	88018
900.5	90831
901.0	92596
901.5	88231
902.0	81718
902.5	77152
903.0	73694
903.5	71311
904.0	70060
904.5	69371
905.0	70281
905.5	71629
906.0	73226
906.5	75470
907.0	78039
907.5	78486
908.0	77437
908.5	76183
909.0	74054
909.5	72566
910.0	71485
910.5	70156
911.0	69185
911.5	68901
912.0	67975
912.5	67402
913.0	67546
913.5	68112
914.0	68991
914.5	70854
915.0	74730
915.5	80846
916.0	89107
916.5	95786
917.0	97474
917.5	91899
918.0	84812
918.5	78637
919.0	74688
919.5	71960
920.0	70431
920.5	69968
921.0	69535
921.5	69094
922.0	69181
922.5	68789
923.0	68123
923.5	68187
924.0	67862
924.5	68035
925.0	67807
925.5	67420
926.0	67352
926.5	67426
927.0	67306
927.5	67381
928.0	68036
928.5	68199
929.0	68196
929.5	68966
930.0	68622
930.5	68873
931.0	69043
931.5	68402
932.0	68547
932.5	68231
933.0	67955
933.5	67659
934.0	67628
934.5	67363
935.0	67692
935.5	67474
936.0	67120
936.5	67293
937.0	66944
937.5	67323
938.0	67477
938.5	67563
939.0	67257
939.5	66996
940.0	67072
940.5	66734
941.0	66935
941.5	66672
942.0	66540
942.5	66164
943.0	66225
943.5	66437
944.0	66243
944.5	65847
945.0	66229
945.5	66078
946.0	65970
946.5	65806
947.0	65812
947.5	65809
948.0	65422
948.5	65580
949.0	65517
949.5	65789
950.0	65519
950.5	65261
951.0	65599
951.5	65384
952.0	64909
952.5	64900
953.0	64980
953.5	64891
954.0	65328
954.5	64802
955.0	64750
955.5	64884
956.0	64855
956.5	64278
957.0	64561
957.5	64596
958.0	64466
958.5	64484
959.0	64190
959.5	63859
960.0	63568
960.5	63958
961.0	63585
961.5	63656
962.0	63764
962.5	63750
963.0	63564
963.5	63168
964.0	63408
964.5	63840
965.0	64057
965.5	64025
966.0	64200
966.5	64733
967.0	64523
967.5	64800
968.0	64773
968.5	64445
969.0	65201
969.5	65771
970.0	66302
970.5	67459
971.0	69190
971.5	72031
972.0	75496
972.5	79061
973.0	80046
973.5	77362
974.0	73469
974.5	70242
975.0	68789
975.5	67338
976.0	65888
976.5	64994
977.0	64365
977.5	64381
978.0	63927
978.5	63986
979.0	63829
979.5	64145
980.0	63692
980.5	63316
981.0	63320
981.5	63580
982.0	63630
982.5	63084
983.0	63445
983.5	63452
984.0	63728
984.5	63480
985.0	63917
985.5	63950
986.0	64343
986.5	64058
987.0	63998
987.5	64300
988.0	64513
988.5	64056
989.0	64067
989.5	63883
990.0	64044
990.5	63870
991.0	64235
991.5	64753
992.0	64758
992.5	65040
993.0	65750
993.5	66029
994.0	65550
994.5	65248
995.0	65043
995.5	65064
996.0	64921
996.5	64403
997.0	64638
997.5	64641
998.0	65032
998.5	64761
999.0	64748
999.5	64663
1000.0	65285
Region	Enabled	DataFlag	Start	End	Step	Sweeps	Dwell	Mode	CAE/CRR	Mag	Divide by Ten	Notes	Function	Line-Style	Point-Style	Sweeps-Acquired
2	true	Original	290.000	340.000	0.100	1	0.500	CAE	20.00	High	false	Rh 3d	7 Channel Acquisition			1
Layer	Enabled	DataFlag	Notes	Formula	Line-Style	Point-Style
1	True		Ch(1)+Ch(2)+Ch(3)+Ch(4)+Ch(5)+Ch(6)+Ch(7)		
Energy	Counts
290.000	3349
290.100	3362
290.200	3327
290.300	3320
290.400	3239
290.500	3236
290.600	3316
290.700	3348
290.800	3282
290.900	3191
291.000	3285
291.100	3259
291.200	3334
291.300	3289
291.400	3235
291.500	3215
291.600	3282
291.700	3225
291.800	3241
291.900	3177
292.000	3211
292.100	3282
292.200	3149
292.300	3128
292.400	3148
292.500	3114
292.600	3155
292.700	3117
292.800	3176
292.900	3228
293.000	3225
293.100	3196
293.200	3099
293.300	3156
293.400	3193
293.500	3172
293.600	3194
293.700	3179
293.800	3159
293.900	3254
294.000	3204
294.100	3138
294.200	3164
294.300	3252
294.400	3304
294.500	3350
294.600	3210
294.700	3290
294.800	3299
294.900	3398
295.000	3443
295.100	3427
295.200	3476
295.300	3637
295.400	3541
295.500	3566
295.600	3547
295.700	3612
295.800	3546
295.900	3524
296.000	3478
296.100	3426
296.200	3474
296.300	3471
296.400	3523
296.500	3539
296.600	3547
296.700	3599
296.800	3722
296.900	3783
297.000	3835
297.100	3859
297.200	3902
297.300	3946
297.400	3969
297.500	3946
297.600	3988
297.700	3952
297.800	3873
297.900	3788
298.000	3734
298.100	3597
298.200	3626
298.300	3487
298.400	3447
298.500	3482
298.600	3424
298.700	3416
298.800	3445
298.900	3515
299.000	3426
299.100	3387
299.200	3449
299.300	3486
299.400	3501
299.500	3509
299.600	3430
299.700	3407
299.800	3563
299.900	3511
300.000	3539
300.100	3431
300.200	3512
300.300	3501
300.400	3555
300.500	3478
300.600	3512
300.700	3524
300.800	3540
300.900	3529
301.000	3556
301.100	3637
301.200	3629
301.300	3640
301.400	3686
301.500	3736
301.600	3655
301.700	3862
301.800	3801
301.900	3872
302.000	3854
302.100	3933
302.200	3930
302.300	3938
302.400	3849
302.500	3895
302.600	3881
302.700	3797
302.800	3816
302.900	3858
303.000	3822
303.100	3767
303.200	3738
303.300	3641
303.400	3682
303.500	3707
303.600	3736
303.700	3664
303.800	3758
303.900	3721
304.000	3701
304.100	3692
304.200	3723
304.300	3692
304.400	3763
304.500	3687
304.600	3741
304.700	3718
304.800	3799
304.900	3800
305.000	3857
305.100	3815
305.200	3815
305.300	3924
305.400	4047
305.500	4124
305.600	4189
305.700	4312
305.800	4511
305.900	4736
306.000	5001
306.100	5356
306.200	5973
306.300	6680
306.400	7469
306.500	8757
306.600	10259
306.700	11868
306.800	13473
306.900	14732
307.000	15690
307.100	16016
307.200	16236
307.300	15948
307.400	15117
307.500	14144
307.600	12996
307.700	12113
307.800	11113
307.900	10369
308.000	9567
308.100	8843
308.200	8264
308.300	7929
308.400	7545
308.500	7049
308.600	6648
308.700	6684
308.800	6447
308.900	6223
309.000	6170
309.100	6121
309.200	5895
309.300	5934
309.400	5722
309.500	5712
309.600	5697
309.700	5706
309.800	5625
309.900	5644
310.000	5660
310.100	5667
310.200	5623
310.300	5686
310.400	5871
310.500	5954
310.600	6097
310.700	6324
310.800	6592
310.900	6989
311.000	7375
311.100	7910
311.200	8451
311.300	9064
311.400	9674
311.500	10291
311.600	10638
311.700	11273
311.800	11646
311.900	11713
312.000	11542
312.100	11264
312.200	11007
312.300	10578
312.400	10146
312.500	9780
312.600	9132
312.700	8599
312.800	8527
312.900	8288
313.000	8014
313.100	7779
313.200	7455
313.300	7298
313.400	7137
313.500	6866
313.600	6784
313.700	6613
313.800	6564
313.900	6377
314.000	6415
314.100	6403
314.200	6219
314.300	6177
314.400	6192
314.500	6199
314.600	5949
314.700	6008
314.800	5985
314.900	6017
315.000	5984
315.100	5933
315.200	5840
315.300	5861
315.400	5966
315.500	5688
315.600	5674
315.700	5707
315.800	5819
315.900	5697
316.000	5834
316.100	5681
316.200	5604
316.300	5493
316.400	5533
316.500	5476
316.600	5570
316.700	5536
316.800	5546
316.900	5422
317.000	5429
317.100	5525
317.200	5486
317.300	5474
317.400	5592
317.500	5468
317.600	5359
317.700	5430
317.800	5457
317.900	5523
318.000	5413
318.100	5356
318.200	5482
318.300	5337
318.400	5328
318.500	5360
318.600	5337
318.700	5305
318.800	5325
318.900	5437
319.000	5298
319.100	5377
319.200	5395
319.300	5335
319.400	5413
319.500	5339
319.600	5242
319.700	5282
319.800	5293
319.900	5322
320.000	5408
320.100	5341
320.200	5322
320.300	5430
320.400	5301
320.500	5344
320.600	5355
320.700	5261
320.800	5217
320.900	5282
321.000	5308
321.100	5351
321.200	5252
321.300	5286
321.400	5306
321.500	5292
321.600	5233
321.700	5334
321.800	5257
321.900	5293
322.000	5234
322.100	5269
322.200	5271
322.300	5246
322.400	5213
322.500	5240
322.600	5210
322.700	5211
322.800	5193
322.900	5094
323.000	5094
323.100	5199
323.200	5198
323.300	5125
323.400	5144
323.500	5066
323.600	5109
323.700	5044
323.800	5113
323.900	5095
324.000	5095
324.100	5043
324.200	5118
324.300	5181
324.400	5049
324.500	5040
324.600	5086
324.700	5015
324.800	5048
324.900	5018
325.000	5097
325.100	4996
325.200	4962
325.300	5007
325.400	5148
325.500	5091
325.600	5065
325.700	5011
325.800	4922
325.900	5034
326.000	5066
326.100	5166
326.200	5063
326.300	5126
326.400	5106
326.500	5121
326.600	5089
326.700	5059
326.800	5037
326.900	5047
327.000	5092
327.100	5003
327.200	5016
327.300	5034
327.400	5026
327.500	5050
327.600	5115
327.700	5028
327.800	5001
327.900	5126
328.000	5199
328.100	5083
328.200	5092
328.300	5091
328.400	5121
328.500	5152
328.600	5104
328.700	4993
328.800	4917
328.900	5055
329.000	5089
329.100	5230
329.200	5187
329.300	5161
329.400	5113
329.500	5153
329.600	5167
329.700	5211
329.800	5106
329.900	5133
330.000	5095
330.100	5035
330.200	5044
330.300	5132
330.400	5045
330.500	5068
330.600	5085
330.700	5046
330.800	5164
330.900	5083
331.000	5134
331.100	5178
331.200	5165
331.300	5144
331.400	5088
331.500	5228
331.600	5178
331.700	5238
331.800	5093
331.900	5090
332.000	5226
332.100	5129
332.200	5219
332.300	5191
332.400	5193
332.500	5186
332.600	5297
332.700	5248
332.800	5209
332.900	5280
333.000	5357
333.100	5280
333.200	5202
333.300	5224
333.400	5325
333.500	5260
333.600	5358
333.700	5360
333.800	5231
333.900	5362
334.000	5366
334.100	5293
334.200	5310
334.300	5240
334.400	5452
334.500	5395
334.600	5342
334.700	5304
334.800	5358
334.900	5373
335.000	5431
335.100	5489
335.200	5371
335.300	5384
335.400	5466
335.500	5551
335.600	5473
335.700	5402
335.800	5530
335.900	5516
336.000	5503
336.100	5508
336.200	5621
336.300	5591
336.400	5571
336.500	5579
336.600	5496
336.700	5517
336.800	5554
336.900	5575
337.000	5597
337.100	5565
337.200	5551
337.300	5517
337.400	5477
337.500	5528
337.600	5624
337.700	5580
337.800	5604
337.900	5647
338.000	5642
338.100	5705
338.200	5732
338.300	5752
338.400	5638
338.500	5660
338.600	5800
338.700	5486
338.800	5663
338.900	5608
339.000	5574
339.100	5708
339.200	5673
339.300	5585
339.400	5721
339.500	5784
339.600	5749
339.700	5806
339.800	5803
339.900	5683
340.000	5848
Region	Enabled	DataFlag	Start	End	Step	Sweeps	Dwell	Mode	CAE/CRR	Mag	Divide by Ten	Notes	Function	Line-Style	Point-Style	Sweeps-Acquired
3	true	Original	276.000	294.000	0.100	1	0.500	CAE	50.00	High	false	C 1s	7 Channel Acquisition			1
Layer	Enabled	DataFlag	Notes	Formula	Line-Style	Point-Style
1	True		Ch(1)+Ch(2)+Ch(3)+Ch(4)+Ch(5)+Ch(6)+Ch(7)		
Energy	Counts
276.000	12357
276.100	12311
276.200	12567
276.300	12329
276.400	12530
276.500	12415
276.600	12543
276.700	12510
276.800	12537
276.900	12418
277.000	12452
277.100	12494
277.200	12496
277.300	12659
277.400	12684
277.500	12581
277.600	12630
277.700	12561
277.800	12273
277.900	12475
278.000	12564
278.100	12448
278.200	12737
278.300	12527
278.400	12481
278.500	12438
278.600	12527
278.700	12465
278.800	12459
278.900	12491
279.000	12554
279.100	12467
279.200	12474
279.300	12621
279.400	12670
279.500	12360
279.600	12636
279.700	12597
279.800	12533
279.900	12524
280.000	12386
280.100	12403
280.200	12535
280.300	12451
280.400	12500
280.500	12512
280.600	12375
280.700	12250
280.800	12437
280.900	12391
281.000	12507
281.100	12484
281.200	12404
281.300	12542
281.400	12515
281.500	12718
281.600	12520
281.700	12507
281.800	12423
281.900	12505
282.000	12691
282.100	12612
282.200	12393
282.300	12352
282.400	12644
282.500	12564
282.600	12562
282.700	12455
282.800	12548
282.900	12631
283.000	12626
283.100	12613
283.200	12683
283.300	12728
283.400	12645
283.500	12662
283.600	12592
283.700	12578
283.800	12761
283.900	12688
284.000	12726
284.100	12557
284.200	12790
284.300	12913
284.400	12729
284.500	12766
284.600	12818
284.700	12829
284.800	12719
284.900	12737
285.000	12858
285.100	12728
285.200	12856
285.300	12817
285.400	12913
285.500	12861
285.600	13110
285.700	13012
285.800	12880
285.900	13204
286.000	13126
286.100	13100
286.200	13032
286.300	13122
286.400	13072
286.500	13125
286.600	13125
286.700	13231
286.800	13364
286.900	13378
287.000	13619
287.100	13564
287.200	13562
287.300	13530
287.400	13573
287.500	13614
287.600	13660
287.700	13864
287.800	13768
287.900	13788
288.000	13981
288.100	14183
288.200	14077
288.300	14197
288.400	14190
288.500	14311
288.600	14385
288.700	14505
288.800	14502
288.900	14358
289.000	14581
289.100	14667
289.200	14465
289.300	14659
289.400	14683
289.500	14528
289.600	14613
289.700	14664
289.800	14584
289.900	14601
290.000	14665
290.100	14561
290.200	14584
290.300	14430
290.400	14686
290.500	14645
290.600	14405
290.700	14452
290.800	14416
290.900	14456
291.000	14300
291.100	14238
291.200	14394
291.300	14377
291.400	14255
291.500	14090
291.600	14182
291.700	14288
291.800	14312
291.900	14293
292.000	14039
292.100	14055
292.200	13673
292.300	14056
292.400	14022
292.500	14250
292.600	14095
292.700	14012
292.800	13879
292.900	13888
293.000	14099
293.100	13960
293.200	13830
293.300	14052
293.400	14107
293.500	14066
293.600	14179
293.700	14071
293.800	14035
293.900	14147
294.000	14211
Region	Enabled	DataFlag	Start	End	Step	Sweeps	Dwell	Mode	CAE/CRR	Mag	Divide by Ten	Notes	Function	Line-Style	Point-Style	Sweeps-Acquired
4	true	Original	525.000	538.000	0.050	1	0.200	CAE	50.00	High	false	O 1s	7 Channel Acquisition			1
Layer	Enabled	DataFlag	Notes	Formula	Line-Style	Point-Style
1	True		Ch(1)+Ch(2)+Ch(3)+Ch(4)+Ch(5)+Ch(6)+Ch(7)		
Energy	Counts
525.000	16081
525.050	15865
525.100	15772
525.150	15981
525.200	15969
525.250	15929
525.300	16032
525.350	15899
525.400	15757
525.450	15969
525.500	16006
525.550	15938
525.600	16040
525.650	15892
525.700	15951
525.750	16138
525.800	16135
525.850	16056
525.900	15992
525.950	15981
526.000	16001
526.050	15838
526.100	15846
526.150	15836
526.200	15971
526.250	15902
526.300	16072
526.350	16019
526.400	16219
526.450	16183
526.500	16202
526.550	16326
526.600	16194
526.650	16300
526.700	16561
526.750	16377
526.800	16533
526.850	16548
526.900	16487
526.950	16584
527.000	16698
527.050	16742
527.100	16699
527.150	16825
527.200	16943
527.250	16890
527.300	17074
527.350	17243
527.400	17512
527.450	17718
527.500	17942
527.550	18078
527.600	18176
527.650	18264
527.700	18649
527.750	19074
527.800	19354
527.850	19725
527.900	20180
527.950	20566
528.000	21032
528.050	21455
528.100	22153
528.150	22724
528.200	23472
528.250	24436
528.300	25460
528.350	26151
528.400	27195
528.450	28334
528.500	29364
528.550	30477
528.600	31704
528.650	32730
528.700	34062
528.750	35180
528.800	36572
528.850	37782
528.900	38685
528.950	40102
529.000	41296
529.050	42068
529.100	43107
529.150	44127
529.200	44453
529.250	45275
529.300	45688
529.350	46112
529.400	46368
529.450	46483
529.500	46449
529.550	46337
529.600	45852
529.650	45634
529.700	45161
529.750	44244
529.800	43582
529.850	42710
529.900	42156
529.950	40983
530.000	40127
530.050	38977
530.100	37802
530.150	36422
530.200	35317
530.250	34033
530.300	32654
530.350	31701
530.400	30624
530.450	29438
530.500	28738
530.550	27518
530.600	26474
530.650	25742
530.700	25312
530.750	24212
530.800	23575
530.850	23089
530.900	22410
530.950	21847
531.000	21273
531.050	20969
531.100	20501
531.150	20132
531.200	19702
531.250	19376
531.300	19282
531.350	19059
531.400	18735
531.450	18473
531.500	18541
531.550	18133
531.600	18031
531.650	17933
531.700	17785
531.750	17513
531.800	17702
531.850	17559
531.900	17379
531.950	17337
532.000	17101
532.050	17294
532.100	17424
532.150	17140
532.200	17109
532.250	17112
532.300	17086
532.350	16916
532.400	17046
532.450	16977
532.500	17173
532.550	17087
532.600	16895
532.650	16956
532.700	17085
532.750	16864
532.800	16863
532.850	17066
532.900	16760
532.950	17021
533.000	17115
533.050	16809
533.100	16973
533.150	16963
533.200	16921
533.250	17165
533.300	17055
533.350	16980
533.400	16937
533.450	16894
533.500	17063
533.550	17023
533.600	16946
533.650	17142
533.700	17057
533.750	17075
533.800	17010
533.850	17076
533.900	16951
533.950	16954
534.000	17114
534.050	17093
534.100	17288
534.150	17140
534.200	17079
534.250	17061
534.300	16959
534.350	16875
534.400	16840
534.450	16897
534.500	16775
534.550	16740
534.600	16890
534.650	16842
534.700	16892
534.750	17088
534.800	17048
534.850	16880
534.900	17061
534.950	16875
535.000	16819
535.050	17013
535.100	16789
535.150	16851
535.200	16870
535.250	16830
535.300	16837
535.350	16735
535.400	16673
535.450	16777
535.500	16934
535.550	17018
535.600	16907
535.650	16713
535.700	16728
535.750	16821
535.800	16851
535.850	16626
535.900	16680
535.950	16861
536.000	16577
536.050	16751
536.100	16719
536.150	16630
536.200	16514
536.250	16450
536.300	16578
536.350	16559
536.400	16699
536.450	16503
536.500	16533
536.550	16498
536.600	16545
536.650	16669
536.700	16337
536.750	16597
536.800	16551
536.850	16588
536.900	16445
536.950	16653
537.000	16631
537.050	16487
537.100	16617
537.150	16580
537.200	16498
537.250	16625
537.300	16652
537.350	16327
537.400	16458
537.450	16460
537.500	16462
537.550	16413
537.600	16331
537.650	16367
537.700	16448
537.750	16644
537.800	16622
537.850	16564
537.900	16555
537.950	16541
538.000	16551
Region	Enabled	DataFlag	Start	End	Step	Sweeps	Dwell	Mode	CAE/CRR	Mag	Divide by Ten	Notes	Function	Line-Style	Point-Style	Sweeps-Acquired
5	true	Original	860.00	940.00	0.05	1	0.200	CAE	50.00	High	false	Ce3d	7 Channel Acquisition			1
Layer	Enabled	DataFlag	Notes	Formula	Line-Style	Point-Style
1	True		Ch(1)+Ch(2)+Ch(3)+Ch(4)+Ch(5)+Ch(6)+Ch(7)		
Energy	Counts
860.00	38137
860.05	37935
860.10	37902
860.15	38072
860.20	37706
860.25	37841
860.30	38181
860.35	38007
860.40	37814
860.45	37751
860.50	37707
860.55	37694
860.60	37602
860.65	37762
860.70	37902
860.75	37651
860.80	37710
860.85	37861
860.90	37777
860.95	37790
861.00	37948
861.05	37981
861.10	37821
861.15	37742
861.20	37833
861.25	38036
861.30	37424
861.35	37532
861.40	37447
861.45	37787
861.50	37869
861.55	37856
861.60	37890
861.65	37888
861.70	37668
861.75	37592
861.80	37920
861.85	37853
861.90	37592
861.95	37968
862.00	37209
862.05	37574
862.10	37846
862.15	37716
862.20	37535
862.25	37867
862.30	37658
862.35	37468
862.40	37742
862.45	37544
862.50	37933
862.55	37696
862.60	37529
862.65	37713
862.70	37572
862.75	37762
862.80	37633
862.85	37479
862.90	37450
862.95	37919
863.00	37765
863.05	37490
863.10	37502
863.15	37808
863.20	37665
863.25	37563
863.30	37456
863.35	37618
863.40	37482
863.45	37682
863.50	37311
863.55	37302
863.60	37591
863.65	37623
863.70	37322
863.75	37486
863.80	37653
863.85	37622
863.90	37422
863.95	37440
864.00	37487
864.05	37408
864.10	37701
864.15	37700
864.20	37154
864.25	37282
864.30	37233
864.35	37455
864.40	37499
864.45	37127
864.50	37443
864.55	37496
864.60	37452
864.65	37726
864.70	37379
864.75	37344
864.80	37635
864.85	37467
864.90	37353
864.95	37578
865.00	37395
865.05	37584
865.10	37360
865.15	37444
865.20	37375
865.25	37303
865.30	37448
865.35	37427
865.40	37353
865.45	37207
865.50	37380
865.55	37335
865.60	37361
865.65	37453
865.70	37603
865.75	37260
865.80	37365
865.85	37221
865.90	36995
865.95	37219
866.00	37209
866.05	36726
866.10	36962
866.15	37578
866.20	37099
866.25	36978
866.30	36907
866.35	37139
866.40	37153
866.45	36933
866.50	37215
866.55	37385
866.60	37219
866.65	37078
866.70	37071
866.75	37230
866.80	37170
866.85	37029
866.90	37450
866.95	37178
867.00	37042
867.05	37249
867.10	37183
867.15	37141
867.20	37016
867.25	37066
867.30	37047
867.35	36936
867.40	36846
867.45	37180
867.50	37008
867.55	37258
867.60	37059
867.65	37173
867.70	37299
867.75	37156
867.80	37105
867.85	37304
867.90	37105
867.95	37249
868.00	37306
868.05	37382
868.10	37261
868.15	37061
868.20	37304
868.25	37522
868.30	37332
868.35	37069
868.40	37527
868.45	37481
868.50	37186
868.55	37090
868.60	37162
868.65	37372
868.70	37254
868.75	37343
868.80	37272
868.85	37321
868.90	37445
868.95	37380
869.00	37694
869.05	37556
869.10	37465
869.15	37531
869.20	37453
869.25	37558
869.30	37787
869.35	37764
869.40	37762
869.45	37655
869.50	37986
869.55	38102
869.60	38124
869.65	38408
869.70	38262
869.75	37924
869.80	38088
869.85	38089
869.90	38242
869.95	38382
870.00	38459
870.05	38562
870.10	38469
870.15	38257
870.20	38427
870.25	38600
870.30	38730
870.35	38503
870.40	38574
870.45	38566
870.50	38724
870.55	38880
870.60	38657
870.65	38612
870.70	38878
870.75	38684
870.80	38798
870.85	38822
870.90	38910
870.95	39033
871.00	39393
871.05	38891
871.10	39261
871.15	39066
871.20	39163
871.25	39264
871.30	39446
871.35	39160
871.40	39115
871.45	39538
871.50	39475
871.55	39576
871.60	39676
871.65	39689
871.70	39681
871.75	39826
871.80	40026
871.85	40035
871.90	40115
871.95	40290
872.00	39987
872.05	40253
872.10	40476
872.15	40804
872.20	40214
872.25	40297
872.30	40421
872.35	40590
872.40	40624
872.45	40333
872.50	40608
872.55	40529
872.60	40573
872.65	40627
872.70	40326
872.75	40464
872.80	40632
872.85	40337
872.90	40576
872.95	40444
873.00	40547
873.05	40316
873.10	40632
873.15	40491
873.20	40250
873.25	40122
873.30	40133
873.35	40471
873.40	40415
873.45	40298
873.50	40244
873.55	40397
873.60	40151
873.65	39845
873.70	40144
873.75	40131
873.80	39685
873.85	39898
873.90	39621
873.95	39710
874.00	39380
874.05	39569
874.10	39783
874.15	39554
874.20	39586
874.25	39762
874.30	39616
874.35	39570
874.40	39539
874.45	39617
874.50	39511
874.55	39509
874.60	39543
874.65	39035
874.70	39364
874.75	39088
874.80	39495
874.85	39630
874.90	39719
874.95	39352
875.00	39415
875.05	39342
875.10	39210
875.15	39311
875.20	39345
875.25	39423
875.30	39444
875.35	39523
875.40	39513
875.45	39680
875.50	39690
875.55	39507
875.60	39405
875.65	39506
875.70	39506
875.75	39710
875.80	39759
875.85	39277
875.90	39634
875.95	39869
876.00	39689
876.05	39951
876.10	39725
876.15	39546
876.20	39807
876.25	39712
876.30	39814
876.35	40015
876.40	39747
876.45	39779
876.50	39964
876.55	40031
876.60	39915
876.65	39846
876.70	39962
876.75	40204
876.80	39904
876.85	40124
876.90	40166
876.95	40235
877.00	40315
877.05	40384
877.10	40519
877.15	40182
877.20	40315
877.25	40390
877.30	39992
877.35	40309
877.40	40260
877.45	40384
877.50	40486
877.55	40217
877.60	40573
877.65	40688
877.70	40649
877.75	40742
877.80	40872
877.85	40645
877.90	40770
877.95	40995
878.00	41063
878.05	41046
878.10	41141
878.15	41548
878.20	41359
878.25	41140
878.30	41048
878.35	41204
878.40	41371
878.45	41629
878.50	41584
878.55	41658
878.60	41521
878.65	41480
878.70	41662
878.75	41528
878.80	41577
878.85	41726
878.90	41748
878.95	41727
879.00	42035
879.05	42377
879.10	42435
879.15	42306
879.20	42290
879.25	42441
879.30	42347
879.35	42612
879.40	42769
879.45	42881
879.50	42862
879.55	42876
879.60	43142
879.65	43061
879.70	43226
879.75	43771
879.80	43375
879.85	43587
879.90	43669
879.95	43726
880.00	44201
880.05	44494
880.10	44859
880.15	44994
880.20	45014
880.25	45636
880.30	46131
880.35	46462
880.40	46885
880.45	47122
880.50	47308
880.55	47945
880.60	48352
880.65	49083
880.70	49316
880.75	50219
880.80	50566
880.85	51356
880.90	52304
880.95	52713
881.00	54152
881.05	54882
881.10	56040
881.15	56981
881.20	58484
881.25	59180
881.30	60339
881.35	61462
881.40	63061
881.45	63872
881.50	65114
881.55	66764
881.60	68205
881.65	69505
881.70	70616
881.75	71849
881.80	73592
881.85	74820
881.90	75775
881.95	76669
882.00	78056
882.05	78990
882.10	79870
882.15	80044
882.20	81460
882.25	82413
882.30	82757
882.35	83005
882.40	83095
882.45	83540
882.50	83778
882.55	84002
882.60	84024
882.65	83407
882.70	83270
882.75	82924
882.80	82630
882.85	82299
882.90	81811
882.95	81227
883.00	80774
883.05	80025
883.10	79166
883.15	78739
883.20	77769
883.25	77012
883.30	76313
883.35	75799
883.40	74882
883.45	74056
883.50	73494
883.55	72618
883.60	72202
883.65	71166
883.70	70798
883.75	70532
883.80	70137
883.85	69359
883.90	68954
883.95	68484
884.00	67820
884.05	67297
884.10	66611
884.15	66427
884.20	66089
884.25	65517
884.30	65312
884.35	64809
884.40	64749
884.45	64237
884.50	63988
884.55	63627
884.60	63338
884.65	63094
884.70	62661
884.75	62453
884.80	61948
884.85	62074
884.90	62315
884.95	61925
885.00	61076
885.05	61126
885.10	61098
885.15	61084
885.20	60644
885.25	60452
885.30	60707
885.35	60504
885.40	60377
885.45	60084
885.50	60214
885.55	60069
885.60	59820
885.65	59823
885.70	59919
885.75	59889
885.80	59829
885.85	59817
885.90	60181
885.95	60103
886.00	60171
886.05	59920
886.10	60171
886.15	60097
886.20	59927
886.25	60449
886.30	60773
886.35	60685
886.40	61273
886.45	61213
886.50	61491
886.55	60706
886.60	61378
886.65	61644
886.70	62125
886.75	62421
886.80	62125
886.85	62820
886.90	63047
886.95	63359
887.00	63484
887.05	63460
887.10	63947
887.15	64201
887.20	64794
887.25	64888
887.30	65296
887.35	65577
887.40	65656
887.45	66565
887.50	66347
887.55	66518
887.60	66823
887.65	67613
887.70	67947
887.75	68580
887.80	69070
887.85	68857
887.90	69239
887.95	70104
888.00	70298
888.05	70478
888.10	71190
888.15	71506
888.20	71505
888.25	72022
888.30	71973
888.35	71943
888.40	72805
888.45	72942
888.50	73453
888.55	72955
888.60	73278
888.65	73233
888.70	73381
888.75	73939
888.80	74059
888.85	74180
888.90	73784
888.95	74073
889.00	74073
889.05	73987
889.10	73664
889.15	73622
889.20	74035
889.25	73393
889.30	73444
889.35	73327
889.40	73337
889.45	72847
889.50	72788
889.55	72247
889.60	72689
889.65	71941
889.70	71882
889.75	71578
889.80	71302
889.85	70792
889.90	70722
889.95	70349
890.00	69907
890.05	70384
890.10	70455
890.15	69770
890.20	69203
890.25	69134
890.30	68669
890.35	68053
890.40	68593
890.45	68021
890.50	67764
890.55	67133
890.60	67289
890.65	67004
890.70	66986
890.75	66305
890.80	66672
890.85	66149
890.90	65621
890.95	65314
891.00	65350
891.05	64763
891.10	64607
891.15	64371
891.20	64071
891.25	63555
891.30	63463
891.35	63034
891.40	62983
891.45	62265
891.50	62259
891.55	62291
891.60	62512
891.65	61835
891.70	61989
891.75	61251
891.80	61069
891.85	61007
891.90	60581
891.95	60652
892.00	60433
892.05	60146
892.10	59771
892.15	59674
892.20	59009
892.25	59087
892.30	58817
892.35	59144
892.40	58996
892.45	58231
892.50	58488
892.55	58456
892.60	58169
892.65	58082
892.70	58211
892.75	57596
892.80	57439
892.85	57874
892.90	57531
892.95	56718
893.00	56936
893.05	57155
893.10	56710
893.15	56531
893.20	56447
893.25	56570
893.30	56342
893.35	56311
893.40	56036
893.45	56089
893.50	55830
893.55	55910
893.60	55900
893.65	55362
893.70	55204
893.75	55883
893.80	55631
893.85	55331
893.90	55096
893.95	55399
894.00	54924
894.05	55307
894.10	55498
894.15	54966
894.20	55178
894.25	55062
894.30	55085
894.35	55628
894.40	55527
894.45	55261
894.50	55662
894.55	55822
894.60	55182
894.65	55201
894.70	55370
894.75	55636
894.80	55836
894.85	55630
894.90	55768
894.95	56606
895.00	55963
895.05	56020
895.10	56377
895.15	56852
895.20	57081
895.25	56998
895.30	57329
895.35	57473
895.40	57204
895.45	57335
895.50	57500
895.55	57922
895.60	58618
895.65	58731
895.70	58838
895.75	59552
895.80	59631
895.85	60131
895.90	60175
895.95	60470
896.00	60885
896.05	61062
896.10	61917
896.15	62117
896.20	62920
896.25	62877
896.30	63449
896.35	64606
896.40	64898
896.45	65754
896.50	66276
896.55	66675
896.60	67828
896.65	68428
896.70	69228
896.75	70317
896.80	70732
896.85	71650
896.90	72666
896.95	73690
897.00	75480
897.05	75745
897.10	76961
897.15	78163
897.20	79435
897.25	80529
897.30	81677
897.35	83263
897.40	84420
897.45	85386
897.50	86758
897.55	87383
897.60	89090
897.65	90342
897.70	92019
897.75	93031
897.80	94186
897.85	95171
897.90	96577
897.95	97497
898.00	98448
898.05	98789
898.10	99640
898.15	100605
898.20	101040
898.25	101472
898.30	102246
898.35	101681
898.40	102309
898.45	102271
898.50	102693
898.55	101997
898.60	101941
898.65	101973
898.70	101163
898.75	100415
898.80	100351
898.85	100284
898.90	99078
898.95	98537
899.00	97446
899.05	96381
899.10	95427
899.15	94746
899.20	94286
899.25	93030
899.30	92665
899.35	91842
899.40	91043
899.45	90097
899.50	89559
899.55	89317
899.60	88601
899.65	88345
899.70	88591
899.75	88065
899.80	87761
899.85	87412
899.90	87021
899.95	87378
900.00	88171
900.05	87780
900.10	88508
900.15	88575
900.20	89088
900.25	89144
900.30	89380
900.35	89563
900.40	90399
900.45	90307
900.50	91182
900.55	91508
900.60	92208
900.65	92471
900.70	92679
900.75	92656
900.80	92793
900.85	92668
900.90	93479
900.95	93676
901.00	93190
901.05	92398
901.10	92334
901.15	91735
901.20	91827
901.25	91239
901.30	91052
901.35	90606
901.40	89801
901.45	89181
901.50	88934
901.55	88669
901.60	87570
901.65	87356
901.70	86788
901.75	85715
901.80	84694
901.85	84234
901.90	83873
901.95	82568
902.00	82350
902.05	81401
902.10	80826
902.15	80011
902.20	80074
902.25	79712
902.30	78902
902.35	78146
902.40	78054
902.45	77212
902.50	76872
902.55	76949
902.60	76317
902.65	75485
902.70	75538
902.75	74917
902.80	74797
902.85	74531
902.90	74557
902.95	73637
903.00	73460
903.05	73312
903.10	73025
903.15	72624
903.20	72615
903.25	72099
903.30	71681
903.35	72023
903.40	72035
903.45	71792
903.50	71820
903.55	71422
903.60	71219
903.65	71027
903.70	70614
903.75	70555
903.80	70559
903.85	70654
903.90	70634
903.95	70353
904.00	70190
904.05	70220
904.10	70380
904.15	70422
904.20	70390
904.25	70595
904.30	70252
904.35	70118
904.40	70064
904.45	70221
904.50	70310
904.55	70526
904.60	69808
904.65	69694
904.70	70205
904.75	70629
904.80	70290
904.85	70345
904.90	70098
904.95	70259
905.00	70291
905.05	70226
905.10	70454
905.15	70693
905.20	70539
905.25	70862
905.30	70981
905.35	70762
905.40	71332
905.45	71225
905.50	71832
905.55	71729
905.60	71918
905.65	72198
905.70	71679
905.75	72314
905.80	72436
905.85	72352
905.90	72925
905.95	72840
906.00	73523
906.05	73420
906.10	73827
906.15	74547
906.20	74703
906.25	74593
906.30	75095
906.35	75552
906.40	75489
906.45	75408
906.50	75651
906.55	75756
906.60	76304
906.65	76468
906.70	76378
906.75	77404
906.80	77364
906.85	77247
906.90	77747
906.95	77718
907.00	77831
907.05	78259
907.10	77994
907.15	77950
907.20	78218
907.25	78599
907.30	78778
907.35	78444
907.40	78956
907.45	78176
907.50	78509
907.55	78445
907.60	78674
907.65	78514
907.70	78294
907.75	78425
907.80	78216
907.85	78074
907.90	77930
907.95	77892
908.00	77891
908.05	77356
908.10	77657
908.15	77588
908.20	76964
908.25	76859
908.30	76699
908.35	76710
908.40	76562
908.45	75920
908.50	76019
908.55	75818
908.60	75805
908.65	75601
908.70	74930
908.75	74799
908.80	74979
908.85	74594
908.90	74239
908.95	74275
909.00	73907
909.05	73764
909.10	73880
909.15	73326
909.20	73370
909.25	73437
909.30	72873
909.35	73206
909.40	72633
909.45	72422
909.50	72450
909.55	72294
909.60	71855
909.65	72049
909.70	71958
909.75	71834
909.80	71659
909.85	71416
909.90	71445
909.95	71468
910.00	71063
910.05	71114
910.10	70834
910.15	70792
910.20	71030
910.25	70652
910.30	69914
910.35	69901
910.40	70089
910.45	70375
910.50	70483
910.55	70585
910.60	69952
910.65	70264
910.70	69842
910.75	69433
910.80	70177
910.85	69799
910.90	69844
910.95	69714
911.00	69309
911.05	69688
911.10	69573
911.15	69613
911.20	69022
911.25	69175
911.30	69546
911.35	69170
911.40	68874
911.45	68556
911.50	69041
911.55	68648
911.60	68816
911.65	68781
911.70	68685
911.75	68518
911.80	68974
911.85	68326
911.90	68099
911.95	68013
912.00	68313
912.05	67965
912.10	67943
912.15	68126
912.20	68012
912.25	67833
912.30	67767
912.35	67913
912.40	67777
912.45	67749
912.50	67420
912.55	67188
912.60	67549
912.65	67688
912.70	67746
912.75	67346
912.80	67371
912.85	67500
912.90	67797
912.95	67616
913.00	67866
913.05	67547
913.10	67466
913.15	67250
913.20	67400
913.25	67949
913.30	67678
913.35	67765
913.40	68104
913.45	67855
913.50	67865
913.55	67851
913.60	68346
913.65	67854
913.70	68313
913.75	68162
913.80	68245
913.85	68076
913.90	68650
913.95	68594
914.00	69463
914.05	68849
914.10	69036
914.15	69312
914.20	69223
914.25	69924
914.30	70212
914.35	70351
914.40	70769
914.45	70523
914.50	70659
914.55	71453
914.60	71705
914.65	71607
914.70	71897
914.75	72918
914.80	72656
914.85	73306
914.90	73754
914.95	74004
915.00	74854
915.05	75175
915.10	75797
915.15	76033
915.20	76678
915.25	77126
915.30	78021
915.35	78933
915.40	79377
915.45	79891
915.50	81106
915.55	81564
915.60	82417
915.65	83204
915.70	84422
915.75	84592
915.80	85697
915.85	87091
915.90	87689
915.95	88445
916.00	89307
916.05	90024
916.10	90931
916.15	91822
916.20	92745
916.25	93568
916.30	94098
916.35	94775
916.40	95381
916.45	95752
916.50	96238
916.55	96771
916.60	97454
916.65	97812
916.70	98066
916.75	98151
916.80	97906
916.85	98284
916.90	98214
916.95	98416
917.00	98070
917.05	97522
917.10	96550
917.15	96294
917.20	95755
917.25	95843
917.30	95273
917.35	93982
917.40	93682
917.45	92814
917.50	91701
917.55	91272
917.60	90198
917.65	89174
917.70	88512
917.75	88343
917.80	87248
917.85	86346
917.90	85833
917.95	85158
918.00	84626
918.05	83626
918.10	82551
918.15	82006
918.20	81647
918.25	80614
918.30	79915
918.35	79151
918.40	78343
918.45	77914
918.50	77915
918.55	77673
918.60	77574
918.65	76358
918.70	76068
918.75	75461
918.80	74722
918.85	74872
918.90	74591
918.95	74466
919.00	73719
919.05	73493
919.10	73006
919.15	73345
919.20	72880
919.25	72919
919.30	72310
919.35	72054
919.40	72148
919.45	71551
919.50	71393
919.55	71523
919.60	71526
919.65	71385
919.70	70706
919.75	70893
919.80	70638
919.85	70680
919.90	70712
919.95	70164
920.00	70252
920.05	70444
920.10	70029
920.15	69796
920.20	69506
920.25	70167
920.30	70016
920.35	69742
920.40	69541
920.45	69800
920.50	69710
920.55	69452
920.60	69309
920.65	69515
920.70	69698
920.75	69579
920.80	69046
920.85	69282
920.90	68734
920.95	68990
921.00	69351
921.05	69536
921.10	68747
921.15	69230
921.20	68907
921.25	69205
921.30	69010
921.35	69190
921.40	68867
921.45	69320
921.50	69364
921.55	69259
921.60	68957
921.65	68884
921.70	69079
921.75	69031
921.80	68914
921.85	68873
921.90	68258
921.95	68746
922.00	68237
922.05	68779
922.10	69067
922.15	68531
922.20	68637
922.25	68453
922.30	68915
922.35	68605
922.40	68591
922.45	68562
922.50	68658
922.55	68966
922.60	68233
922.65	68567
922.70	68693
922.75	68592
922.80	68664
922.85	68299
922.90	68439
922.95	68519
923.00	67961
923.05	68204
923.10	68715
923.15	68182
923.20	68487
923.25	68117
923.30	68583
923.35	68153
923.40	68189
923.45	68401
923.50	68054
923.55	68329
923.60	68434
923.65	68465
923.70	68145
923.75	67743
923.80	67934
923.85	67952
923.90	68333
923.95	67883
924.00	68033
924.05	68167
924.10	67968
924.15	67923
924.20	67953
924.25	68046
924.30	68117
924.35	67727
924.40	68012
924.45	68038
924.50	67687
924.55	67838
924.60	67770
924.65	67908
924.70	68137
924.75	67678
924.80	67974
924.85	67536
924.90	68262
924.95	68082
925.00	67855
925.05	68164
925.10	68011
925.15	68049
925.20	67978
925.25	67642
925.30	67481
925.35	67640
925.40	67989
925.45	67559
925.50	68084
925.55	67432
925.60	67815
925.65	67846
925.70	67351
925.75	67510
925.80	67640
925.85	67612
925.90	68011
925.95	67799
926.00	67454
926.05	67246
926.10	67316
926.15	67385
926.20	67301
926.25	67436
926.30	67652
926.35	67492
926.40	67530
926.45	67839
926.50	67908
926.55	67722
926.60	67509
926.65	67508
926.70	67727
926.75	67555
926.80	67443
926.85	67549
926.90	67335
926.95	67498
927.00	67188
927.05	67334
927.10	67772
927.15	67533
927.20	67672
927.25	67259
927.30	67143
927.35	67187
927.40	67925
927.45	67768
927.50	67483
927.55	67764
927.60	67756
927.65	67788
927.70	68246
927.75	67809
927.80	67683
927.85	67775
927.90	68076
927.95	67748
928.00	67801
928.05	67734
928.10	67970
928.15	67964
928.20	68038
928.25	67755
928.30	68016
928.35	68427
928.40	68200
928.45	68360
928.50	68543
928.55	68740
928.60	68577
928.65	68464
928.70	68507
928.75	68547
928.80	68211
928.85	68830
928.90	68704
928.95	68399
929.00	68666
929.05	68385
929.10	68673
929.15	68317
929.20	68674
929.25	69083
929.30	68885
929.35	69140
929.40	68406
929.45	68637
929.50	68272
929.55	68556
929.60	68908
929.65	68882
929.70	69139
929.75	68666
929.80	68999
929.85	69207
929.90	69115
929.95	69498
930.00	69173
930.05	69091
930.10	68625
930.15	68926
930.20	69131
930.25	69037
930.30	68971
930.35	68713
930.40	68847
930.45	69339
930.50	68745
930.55	68887
930.60	68804
930.65	68703
930.70	68671
930.75	68415
930.80	68605
930.85	68908
930.90	68926
930.95	68782
931.00	68496
931.05	68977
931.10	69040
931.15	69420
931.20	69210
931.25	68679
931.30	68946
931.35	68648
931.40	68330
931.45	68613
931.50	68510
931.55	68601
931.60	68643
931.65	69180
931.70	68687
931.75	69048
931.80	68614
931.85	68425
931.90	68625
931.95	68626
932.00	68261
932.05	68279
932.10	68342
932.15	68276
932.20	68131
932.25	68369
932.30	67877
932.35	68277
932.40	68441
932.45	68191
932.50	67941
932.55	68214
932.60	68362
932.65	67942
932.70	68388
932.75	68120
932.80	68150
932.85	68056
932.90	67995
932.95	68216
933.00	68178
933.05	68061
933.10	67825
933.15	67987
933.20	67727
933.25	67549
933.30	68041
933.35	67744
933.40	67479
933.45	68015
933.50	67887
933.55	67701
933.60	67369
933.65	67579
933.70	67960
933.75	68165
933.80	67555
933.85	67680
933.90	67823
933.95	67620
934.00	67650
934.05	67266
934.10	67959
934.15	67705
934.20	67434
934.25	67912
934.30	67802
934.35	67833
934.40	67602
934.45	67455
934.50	67204
934.55	67704
934.60	67420
934.65	67534
934.70	67195
934.75	67418
934.80	67482
934.85	67325
934.90	67167
934.95	67136
935.00	67759
935.05	67375
935.10	67357
935.15	67083
935.20	67606
935.25	67909
935.30	67319
935.35	67193
935.40	67195
935.45	67307
935.50	67369
935.55	67595
935.60	67159
935.65	67151
935.70	67233
935.75	67138
935.80	67101
935.85	67134
935.90	66989
935.95	67535
936.00	67507
936.05	67269
936.10	67279
936.15	67377
936.20	67581
936.25	67368
936.30	67253
936.35	67450
936.40	66863
936.45	67501
936.50	67536
936.55	67632
936.60	67272
936.65	67309
936.70	67176
936.75	67328
936.80	67240
936.85	67205
936.90	67414
936.95	67666
937.00	67448
937.05	67113
937.10	66955
937.15	67429
937.20	66899
937.25	66896
937.30	67049
937.35	67008
937.40	66988
937.45	67355
937.50	67245
937.55	66929
937.60	67196
937.65	67532
937.70	67309
937.75	67310
937.80	67386
937.85	67404
937.90	67556
937.95	67302
938.00	67258
938.05	67352
938.10	67234
938.15	66912
938.20	67535
938.25	67156
938.30	67630
938.35	67569
938.40	67454
938.45	67581
938.50	67416
938.55	67457
938.60	67287
938.65	66865
938.70	67500
938.75	67169
938.80	67048
938.85	67262
938.90	67759
938.95	67537
939.00	67391
939.05	67572
939.10	67692
939.15	67432
939.20	67030
939.25	67172
939.30	67498
939.35	67145
939.40	67037
939.45	67125
939.50	67475
939.55	67247
939.60	67028
939.65	67183
939.70	66928
939.75	67158
939.80	66978
939.85	66869
939.90	67419
939.95	66788
940.00	67121
